File: samples/Diffrac-ATuxd.UXD
; C:\DIFFDAT1\MK\Auftragsmessungen\Schmeiﬂer\Polymer Glas\2010_12_01\P3HTrr101130_1.raw(Diffrac Plus V1.01 file) converted by XCH V1.0
_FILEVERSION=2
_SAMPLE='P3HTrr101130'
_SITE='Deutschland'
_USER='LS Leichtbaukeramik'
_ATTACHMENTS_CODE=0
_GONIOMETER_RADIUS=250
_FIXED_DIVSLIT=0.600000
_FIXED_SAMPLESLIT=0.000000
_FIXED_DETSLIT=10.5
_MONOCHROMATOR=0
; None
_THIN_FILM='N'
_BETA_FILTER='Y'
_FIXED_ANTISLIT=6.760000
_ANALYZER_CODE=0
; None
_DATEMEASURED='01-Dec-2010 11:00:32'
_WL_UNIT='A'
_WL1=1.540600
_WL2=1.544390
_WL3=1.392220
_WLRATIO=0.500000
_ANODE='Cu'
; (Data for Range number 1)
_DRIVE='2THETA'
_STEPTIME=0.500000
_STEPSIZE=0.020000
_STEPMODE='C'
_START=5.000000
_THETA=3.000000
_2THETA=5.000000
_KHI=0.000000
_PHI=0.000000
_X=0.000000
_Y=0.000000
_Z=0.000000
_DIVERGENCE=0.499000
_ANTISCATTER=0.499000
_DETECTOR=1
; S.C.
_HV=671
_GAIN=80
_LLD=0.600000
_ULD=1.800000
_DETECTORSLIT='unkn'
_AUX1=0.000000
_AUX2=0.000000
_AUX3=0.000000
_TIMESTARTED=19
_TEMP_RATE=-1.000000
_TEMP_DELAY=-1.000000
_KV=40
_MA=40
_RANGE_WL=1.540600
_3DPLANE=0
_2THETACOUNTS
5.0000	2552
5.3000	4912
5.6000	3274
5.9000	1662
6.2000	833
6.5000	706
6.8000	598
7.1000	489
7.4000	526
7.7000	481
8.0000	526
8.3000	482
8.6000	514
8.9000	529
9.2000	594
9.5000	591
9.8000	594
10.1000	566
10.4000	607
10.7000	717
11.0000	615
11.3000	449
11.6000	369
11.9000	336
12.2000	289
12.5000	283
12.8000	264
13.1000	265
13.4000	240
13.7000	278
14.0000	243
14.3000	272
14.6000	296
14.9000	295
15.2000	324
15.5000	321
15.8000	344
16.1000	413
16.4000	368
16.7000	335
17.0000	310
17.3000	296
17.6000	290
17.9000	275
18.2000	261
18.5000	270
18.8000	285
19.1000	315
19.4000	294
19.7000	316
20.0000	289
20.3000	286
20.6000	295
20.9000	288
21.2000	320
21.5000	324
21.8000	292
22.1000	339
22.4000	308
22.7000	300
23.0000	329
23.3000	331
23.6000	311
23.9000	320
24.2000	291
24.5000	286
24.8000	279
25.1000	316
25.4000	305
25.7000	319
26.0000	290
26.3000	308
26.6000	289
26.9000	280
27.2000	270
27.5000	302
27.8000	251
28.1000	235
28.4000	253
28.7000	237
29.0000	222
29.3000	273
29.6000	236
29.9000	246
30.2000	287
30.5000	381
30.8000	251
31.1000	214
31.4000	193
31.7000	210
32.0000	227
32.3000	166
32.6000	197
32.9000	215
33.2000	156
33.5000	161
33.8000	186
34.1000	166
34.4000	169
34.7000	139
35.0000	176
35.3000	192
35.6000	181
35.9000	151
36.2000	132
36.5000	119
36.8000	117
37.1000	127
37.4000	149
37.7000	111
38.0000	129
38.3000	125
38.6000	128
38.9000	120
39.2000	138
39.5000	121
39.8000	97
40.1000	108
40.4000	127
40.7000	122
41.0000	98
41.3000	119
41.6000	123
41.9000	98
42.2000	108
42.5000	117
42.8000	111
43.1000	112
43.4000	97
43.7000	120
44.0000	96
44.3000	99
44.6000	111
44.9000	117
45.2000	80
45.5000	104
45.8000	94
46.1000	110
46.4000	81
46.7000	107
47.0000	105
47.3000	90
47.6000	81
47.9000	106
48.2000	75
48.5000	86
48.8000	96
49.1000	91
49.4000	62
49.7000	83
50.0000	82
50.3000	97
50.6000	98
50.9000	102
51.2000	86
51.5000	79
51.8000	88
52.1000	76
52.4000	84
52.7000	80
53.0000	71
53.3000	78
53.6000	77
53.9000	76
54.2000	90
54.5000	75
54.8000	63
55.1000	63
55.4000	85
55.7000	65
56.0000	61
56.3000	58
56.6000	75
56.9000	64
57.2000	66
57.5000	76
57.8000	77
58.1000	75
58.4000	76
58.7000	74
59.0000	66
59.3000	58
59.6000	67
59.9000	79
60.2000	73
60.5000	89
60.8000	65
61.1000	64
61.4000	56
61.7000	66
62.0000	67
62.3000	54
62.6000	45
62.9000	63
63.2000	49
63.5000	52
63.8000	60
64.1000	68
64.4000	64
64.7000	58
65.0000	71
65.3000	56
65.6000	56
65.9000	51
66.2000	48
66.5000	49
66.8000	59
67.1000	52
67.4000	51
67.7000	40
68.0000	36
68.3000	45
68.6000	49
68.9000	54
69.2000	48
69.5000	57
69.8000	34
70.1000	53
70.4000	47
70.7000	48
71.0000	45
71.3000	44
71.6000	37
71.9000	36
72.2000	44
72.5000	47
72.8000	43
73.1000	42
73.4000	41
73.7000	36
74.0000	46
74.3000	41
74.6000	36
74.9000	42
75.2000	42
75.5000	23
75.8000	37
76.1000	31
76.4000	41
76.7000	34
77.0000	27
77.3000	35
77.6000	27
77.9000	34
78.2000	30
78.5000	33
78.8000	32
79.1000	28
79.4000	36
79.7000	23
80.0000	26
80.3000	32
80.6000	20
80.9000	30
81.2000	47
81.5000	31
81.8000	20
82.1000	28
82.4000	28
82.7000	26
83.0000	34
83.3000	34
83.6000	28
83.9000	22
84.2000	28
84.5000	21
84.8000	31
85.1000	37
85.4000	29
85.7000	27
86.0000	24
86.3000	21
86.6000	25
86.9000	35
87.2000	18
87.5000	19
87.8000	17
88.1000	26
88.4000	30
88.7000	32
89.0000	19
89.3000	23
89.6000	22
89.9000	24
90.0000	22